# wave aperture counts noise snr
       4000.0000     0.300000       217.79496       29.017105      7.50574
       4005.2632     0.300000       222.01415       29.104877      7.62807
       4010.5645     0.300000       226.31657       29.194086      7.75214
       4015.9042     0.300000       230.70389       29.284742      7.87796
       4021.2826     0.300000       235.17774       29.376889      8.00554
       4026.7000     0.300000       239.74003       29.470532      8.13491
       4032.1566     0.300000       244.39219       29.565692      8.26607
       4037.6528     0.300000       249.13640       29.662396      8.39907
       4043.1888     0.300000       253.97426       29.760667      8.53389
       4048.7650     0.300000       258.90784       29.860512      8.67058
       4054.3815     0.300000       263.93860       29.961970      8.80912
       4060.0388     0.300000       269.06881       30.065051      8.94955
       4065.7370     0.300000       274.30048       30.169774      9.09190
       4071.4766     0.300000       279.63551       30.276177      9.23616
       4077.2577     0.300000       285.07592       30.384267      9.38235
       4083.0808     0.300000       290.62399       30.494075      9.53051
       4088.9460     0.300000       296.28132       30.605628      9.68062
       4094.8538     0.300000       302.05067       30.718927      9.83272
       4100.8043     0.300000       307.93412       30.834018      9.98683
       4106.7980     0.300000       313.93325       30.950916      10.1429
       4112.8351     0.300000       320.05089       31.069629      10.3011
       4118.9160     0.300000       326.28961       31.190207      10.4613
       4125.0409     0.300000       332.65160       31.312659      10.6235
       4131.2102     0.300000       339.13904       31.437004      10.7879
       4137.4242     0.300000       345.75529       31.563289      10.9543
       4143.6833     0.300000       352.50215       31.691514      11.1229
       4149.9877     0.300000       359.38221       31.821707      11.2936
       4156.3378     0.300000       366.39840       31.953906      11.4665
       4162.7339     0.300000       373.55264       32.088125      11.6415
       4169.1764     0.300000       380.84874       32.224388      11.8186
       4175.6656     0.300000       388.28885       32.362714      11.9980
       4182.2017     0.300000       395.87573       32.503142      12.1796
       4188.7853     0.300000       403.61284       32.645693      12.3634
       4195.4166     0.300000       411.50256       32.790384      12.5495
       4202.0959     0.300000       419.54793       32.937250      12.7378
       4208.8236     0.300000       427.75139       33.086298      12.9284
       4215.6001     0.300000       436.11653       33.237567      13.1212
       4222.4257     0.300000       444.64668       33.391074      13.3163
       4229.3007     0.300000       453.34489       33.546849      13.5138
       4236.2256     0.300000       462.21504       33.704937      13.7136
       4243.2007     0.300000       471.25990       33.865341      13.9157
       4250.2263     0.300000       480.48356       34.028104      14.1202
       4257.3028     0.300000       489.88859       34.193235      14.3271
       4264.4306     0.300000       499.47848       34.360749      14.5363
       4271.6101     0.300000       509.25752       34.530710      14.7480
       4278.8415     0.300000       519.22869       34.703116      14.9620
       4286.1254     0.300000       529.39689       34.878016      15.1785
       4293.4621     0.300000       539.76495       35.055418      15.3975
       4300.8520     0.300000       550.33688       35.235355      15.6189
       4308.2954     0.300000       561.11727       35.417864      15.8428
       4315.7927     0.300000       572.10961       35.602955      16.0692
       4323.3444     0.300000       583.31917       35.790686      16.2981
       4330.9508     0.300000       594.74813       35.981052      16.5295
       4338.6123     0.300000       606.40150       36.174079      16.7634
       4346.3294     0.300000       618.28311       36.369795      16.9999
       4354.1023     0.300000       630.39745       36.568235      17.2389
       4361.9316     0.300000       642.75071       36.769435      17.4806
       4369.8177     0.300000       655.34535       36.973412      17.7248
       4377.7609     0.300000       668.18601       37.180177      17.9716
       4385.7616     0.300000       681.27814       37.389775      18.2210
       4393.8203     0.300000       694.62631       37.602236      18.4730
       4401.9375     0.300000       708.23549       37.817578      18.7277
       4410.1134     0.300000       722.11390       38.035891      18.9851
       4418.3486     0.300000       736.26330       38.257137      19.2451
       4426.6435     0.300000       750.68832       38.481349      19.5078
       4434.9985     0.300000       765.39520       38.708555      19.7733
       4443.4141     0.300000       780.38871       38.938791      20.0414
       4451.8906     0.300000       795.67319       39.172067      20.3123
       4460.4286     0.300000       811.25653       39.408431      20.5859
       4469.0284     0.300000       827.14260       39.647884      20.8622
       4477.6905     0.300000       843.33731       39.890492      21.1413
       4486.4155     0.300000       859.84595       40.136241      21.4232
       4495.2036     0.300000       876.67533       40.385170      21.7079
       4504.0555     0.300000       893.83129       40.637337      21.9953
       4512.9715     0.300000       911.32070       40.892747      22.2856
       4521.9521     0.300000       929.14819       41.151435      22.5788
       4530.9978     0.300000       947.32105       41.413412      22.8747
       4540.1090     0.300000       965.84463       41.678719      23.1736
       4549.2863     0.300000       984.72583       41.947376      23.4753
       4558.5301     0.300000       1003.9703       42.219387      23.7798
       4567.8408     0.300000       1023.5875       42.494834      24.0873
       4577.2191     0.300000       1043.5808       42.773690      24.3977
       4586.6653     0.300000       1063.9578       43.056012      24.7110
       4596.1799     0.300000       1084.7271       43.341824      25.0273
       4605.7636     0.300000       1105.8952       43.631146      25.3465
       4615.4166     0.300000       1127.4692       43.923996      25.6686
       4625.1396     0.300000       1149.4548       44.220416      25.9938
       4634.9331     0.300000       1171.8624       44.520426      26.3219
       4644.7976     0.300000       1194.6972       44.824050      26.6530
       4654.7335     0.300000       1217.9677       45.131322      26.9872
       4664.7414     0.300000       1241.6810       45.442258      27.3244
       4674.8219     0.300000       1265.8468       45.756902      27.6646
       4684.9754     0.300000       1290.4721       46.075271      28.0079
       4695.2025     0.300000       1315.5626       46.397381      28.3542
       4705.5038     0.300000       1341.1305       46.723276      28.7037
       4715.8796     0.300000       1367.1867       47.053012      29.0563
       4726.3307     0.300000       1393.7352       47.386563      29.4120
       4736.8575     0.300000       1420.7845       47.723962      29.7709
       4747.4606     0.300000       1448.3455       48.065263      30.1329
       4758.1405     0.300000       1476.4244       48.410456      30.4980
       4768.8978     0.300000       1505.0314       48.759582      30.8664
       4779.7331     0.300000       1534.1753       49.112655      31.2379
       4790.6469     0.300000       1563.8651       49.469711      31.6126
       4801.6398     0.300000       1594.1106       49.830780      31.9905
       4812.7124     0.300000       1624.9304       50.195960      32.3717
       4823.8651     0.300000       1656.3299       50.565261      32.7563
       4835.0988     0.300000       1688.3141       50.938607      33.1441
       4846.4138     0.300000       1720.8938       51.316077      33.5352
       4857.8108     0.300000       1754.0791       51.697684      33.9296
       4869.2905     0.300000       1787.8784       52.083435      34.3272
       4880.8533     0.300000       1822.3047       52.473377      34.7282
       4892.4999     0.300000       1857.3661       52.867482      35.1325
       4904.2309     0.300000       1893.0751       53.265837      35.5401
       4916.0469     0.300000       1929.4582       53.668624      35.9513
       4927.9486     0.300000       1966.5128       54.075706      36.3659
       4939.9365     0.300000       2004.2487       54.487102      36.7839
       4952.0112     0.300000       2042.6743       54.902798      37.2053
       4964.1735     0.300000       2081.8031       55.322844      37.6301
       4976.4240     0.300000       2121.6460       55.747257      38.0583
       4988.7632     0.300000       2162.2156       56.176042      38.4900
       5001.1918     0.300000       2203.5218       56.609248      38.9251
       5013.7105     0.300000       2245.5916       57.047028      39.3639
       5026.3199     0.300000       2288.4331       57.489365      39.8062
       5039.0207     0.300000       2332.0485       57.936172      40.2520
       5051.8135     0.300000       2376.4495       58.387478      40.7014
       5064.6990     0.300000       2421.6512       58.843298      41.1542
       5077.6780     0.300000       2467.6641       59.303660      41.6107
       5090.7509     0.300000       2514.4996       59.768565      42.0706
       5103.9186     0.300000       2562.1748       60.238054      42.5342
       5117.1818     0.300000       2610.7177       60.712334      43.0014
       5130.5410     0.300000       2660.1315       61.191295      43.4724
       5143.9971     0.300000       2710.4232       61.674901      43.9469
       5157.5507     0.300000       2761.6087       62.163173      44.4252
       5171.2025     0.300000       2813.6954       62.656105      44.9070
       5184.9532     0.300000       2866.6993       63.153722      45.3924
       5198.8036     0.300000       2920.6398       63.656057      45.8816
       5212.7544     0.300000       2975.5333       64.163219      46.3744
       5226.8063     0.300000       3031.4027       64.675246      46.8711
       5240.9600     0.300000       3088.2526       65.192073      47.3716
       5255.2162     0.300000       3146.0917       65.713684      47.8757
       5269.5758     0.300000       3204.9321       66.240068      48.3836
       5284.0394     0.300000       3264.7898       66.771241      48.8951
       5298.6079     0.300000       3325.6861       67.307285      49.4105
       5313.2819     0.300000       3387.6386       67.848235      49.9296
       5328.0623     0.300000       3450.6687       68.394129      50.4527
       5342.9498     0.300000       3514.7786       68.944906      50.9795
       5357.9452     0.300000       3579.9840       69.500571      51.5101
       5373.0492     0.300000       3646.3031       70.061159      52.0446
       5388.2627     0.300000       3713.7426       70.626622      52.5828
       5403.5865     0.300000       3782.3233       71.196967      53.1248
       5419.0213     0.300000       3852.0706       71.772340      53.6707
       5434.5679     0.300000       3922.9969       72.352673      54.2205
       5450.2272     0.300000       3995.1087       72.937949      54.7741
       5466.0000     0.300000       4068.4227       73.528133      55.3315
       5481.8871     0.300000       4142.9566       74.123292      55.8928
       5497.8894     0.300000       4218.7319       74.723478      56.4579
       5514.0076     0.300000       4295.7602       75.328588      57.0270
       5530.2426     0.300000       4374.0423       75.938577      57.5997
       5546.5953     0.300000       4453.6067       76.553505      58.1764
       5563.0664     0.300000       4534.4718       77.173450      58.7569
       5579.6570     0.300000       4616.6546       77.798384      59.3413
       5596.3677     0.300000       4700.1729       78.428355      59.9295
       5613.1996     0.300000       4785.0406       79.063277      60.5217
       5630.1534     0.300000       4871.2344       79.702912      61.1174
       5647.2302     0.300000       4958.8039       80.347498      61.7170
       5664.4306     0.300000       5047.7693       80.997061      62.3204
       5681.7557     0.300000       5138.1533       81.651643      62.9277
       5699.2064     0.300000       5229.9688       82.311234      63.5389
       5716.7835     0.300000       5323.2100       82.975659      64.1539
       5734.4880     0.300000       5417.8628       83.644701      64.7723
       5752.3208     0.300000       5513.9949       84.318747      65.3947
       5770.2829     0.300000       5611.6270       84.997793      66.0209
       5788.3751     0.300000       5710.7727       85.681831      66.6509
       5806.5984     0.300000       5811.4487       86.370836      67.2848
       5824.9538     0.300000       5913.6009       87.064370      67.9222
       5843.4422     0.300000       6017.2858       87.762668      68.5632
       5862.0646     0.300000       6122.5479       88.465919      69.2080
       5880.8219     0.300000       6229.4074       89.174099      69.8567
       5899.7152     0.300000       6337.8671       89.887191      70.5091
       5918.7454     0.300000       6475.3108       90.783788      71.3267
       5937.9949     0.300000       6616.0942       91.693058      72.1548
       5957.4675     0.300000       6759.9486       92.612891      72.9914
       5977.1658     0.300000       6906.9217       93.543255      73.8367
       5997.0924     0.300000       7057.0808       94.484256      74.6905
       6017.2499     0.300000       7167.1798       95.167112      75.3115
       6037.6411     0.300000       7271.3098       95.808166      75.8945
       6058.2685     0.300000       7376.7357       96.452827      76.4802
       6079.1351     0.300000       7483.4642       97.101057      77.0688
       6100.2435     0.300000       7591.4912       97.752777      77.6601
       6121.5965     0.300000       7700.8043       98.407830      78.2540
       6143.1970     0.300000       7811.3851       99.066016      78.8503
       6165.0478     0.300000       7923.2852       99.727621      79.4493
       6187.1519     0.300000       8036.4978       100.39251      80.0508
       6209.5121     0.300000       8151.0248       101.06068      80.6548
       6232.1315     0.300000       8266.8362       101.73179      81.2611
       6255.0131     0.300000       8383.9569       102.40598      81.8698
       6278.1598     0.300000       8502.3984       103.08325      82.4809
       6301.5748     0.300000       8622.1645       103.76359      83.0943
       6325.2612     0.300000       8743.2358       104.44680      83.7099
       6349.2221     0.300000       8864.6707       105.12749      84.3231
       6373.4607     0.300000       8985.3633       105.79958      84.9282
       6397.9802     0.300000       9107.2573       106.47405      85.5350
       6422.7839     0.300000       9230.3329       107.15070      86.1435
       6447.8750     0.300000       9354.5776       107.82942      86.7535
       6473.2570     0.300000       9479.9961       108.51015      87.3651
       6498.9331     0.300000       9606.5768       109.19296      87.9780
       6524.9068     0.300000       9734.3352       109.87770      88.5925
       6551.1815     0.300000       9863.2745       110.56445      89.2084
       6577.7608     0.300000       9993.3528       111.25293      89.8255
       6604.6480     0.300000       10124.560       111.94305      90.4439
       6631.8469     0.300000       10256.943       112.63504      91.0635
       6659.3611     0.300000       10390.472       113.32873      91.6844
       6687.1941     0.300000       10523.771       114.01695      92.3001
       6715.3496     0.300000       10650.644       114.66790      92.8825
       6743.8315     0.300000       10778.377       115.31950      93.4653
       6772.6435     0.300000       10906.823       115.97105      94.0478
       6801.7894     0.300000       11035.961       116.62242      94.6298
       6831.2731     0.300000       11165.874       117.27405      95.2118
       6861.0985     0.300000       11296.554       117.92588      95.7937
       6891.2696     0.300000       11427.857       118.57719      96.3748
       6921.7903     0.300000       11559.772       119.22799      96.9552
       6952.6648     0.300000       11692.508       119.87925      97.5357
       6983.8971     0.300000       11825.785       120.52957      98.1152
       7015.4914     0.300000       11959.559       121.17887      98.6934
       7047.4518     0.300000       12067.207       121.69813      99.1569
       7079.7827     0.300000       12163.695       122.16133      99.5707
       7112.4882     0.300000       12259.240       122.61828      99.9789
       7145.5728     0.300000       12354.062       123.07009      100.382
       7179.0409     0.300000       12447.902       123.51554      100.780
       7212.8968     0.300000       12540.602       123.95401      101.171
       7247.1451     0.300000       12632.376       124.38662      101.557
       7281.7903     0.300000       12722.963       124.81209      101.937
       7316.8370     0.300000       12812.222       125.22992      102.310
       7352.2900     0.300000       12900.332       125.64101      102.676
       7388.1538     0.300000       13001.118       126.11007      103.093
       7424.4333     0.300000       13109.646       126.61342      103.541
       7461.1332     0.300000       13217.535       127.11191      103.983
       7498.2585     0.300000       13324.548       127.60434      104.421
       7535.8140     0.300000       13430.654       128.09081      104.853
       7573.8048     0.300000       13535.849       128.57124      105.279
       7612.2359     0.300000       13639.931       129.04486      105.699
       7651.1124     0.300000       13742.955       129.51190      106.113
       7690.4395     0.300000       13844.805       129.97202      106.521
       7730.2224     0.300000       13957.454       130.47932      106.971
       7770.4663     0.300000       14078.278       131.02144      107.450
       7811.1767     0.300000       14201.621       131.57261      107.938
       7852.3682     0.300000       14332.873       132.15685      108.454
       7894.0717     0.300000       14463.472       132.73556      108.965
       7936.2935     0.300000       14593.347       133.30864      109.470
       7979.0400     0.300000       14722.447       133.87585      109.971
       8022.3178     0.300000       14850.673       134.43690      110.466
       8066.1335     0.300000       14974.204       134.97513      110.940
       8110.4938     0.300000       15090.695       135.48068      111.386
       8155.4054     0.300000       15205.828       135.97855      111.825
       8200.8751     0.300000       15319.514       136.46836      112.257
       8246.9100     0.300000       15431.719       136.95014      112.681
       8293.5171     0.300000       15542.361       137.42355      113.098
       8340.7033     0.300000       15651.351       137.88836      113.507
       8388.4761     0.300000       15758.674       138.34455      113.909
       8436.8425     0.300000       15879.321       138.85591      114.358
       8485.8101     0.300000       15999.249       139.36238      114.803
       8535.3863     0.300000       16117.681       139.86077      115.241
       8585.5786     0.300000       16234.700       140.35149      115.672
       8636.3948     0.300000       16350.085       140.83375      116.095
       8687.8425     0.300000       16463.903       141.30795      116.511
       8739.9296     0.300000       16575.410       141.77106      116.917
