# wave aperture counts noise snr
       4000.0000     0.300000       1.2352641       16.649506    0.0741922
       4005.2632     0.300000       1.3160017       16.653619    0.0790220
       4010.5645     0.300000       1.4014373       16.657843    0.0841308
       4015.9042     0.300000       1.5088121       16.662459    0.0905516
       4021.2826     0.300000       1.6139422       16.667072    0.0968342
       4026.7000     0.300000       1.7041539       16.671484     0.102220
       4032.1566     0.300000       1.7908391       16.675875     0.107391
       4037.6528     0.300000       1.8703784       16.680189     0.112132
       4043.1888     0.300000       1.9485811       16.684522     0.116790
       4048.7650     0.300000       2.0262576       16.688884     0.121414
       4054.3815     0.300000       2.1119608       16.693414     0.126515
       4060.0388     0.300000       2.2017835       16.698049     0.131859
       4065.7370     0.300000       2.3025149       16.702902     0.137851
       4071.4766     0.300000       2.4082916       16.707881     0.144141
       4077.2577     0.300000       2.5235794       16.713049     0.150995
       4083.0808     0.300000       2.6463859       16.718385     0.158292
       4088.9460     0.300000       2.7765465       16.723875     0.166023
       4094.8538     0.300000       2.9007268       16.729315     0.173392
       4100.8043     0.300000       3.0231222       16.734770     0.180649
       4106.7980     0.300000       3.1287025       16.739993     0.186900
       4112.8351     0.300000       3.2234355       16.745092     0.192500
       4118.9160     0.300000       3.3048393       16.750013     0.197304
       4125.0409     0.300000       3.3772148       16.754841     0.201567
       4131.2102     0.300000       3.4488649       16.759700     0.205783
       4137.4242     0.300000       3.5226148       16.764638     0.210122
       4143.6833     0.300000       3.6088926       16.769827     0.215202
       4149.9877     0.300000       3.7049518       16.775216     0.220859
       4156.3378     0.300000       3.8196424       16.780958     0.227618
       4162.7339     0.300000       3.9390688       16.786824     0.234652
       4169.1764     0.300000       4.0640147       16.792825     0.242009
       4175.6656     0.300000       4.1723073       16.798608     0.248372
       4182.2017     0.300000       4.2761837       16.804372     0.254469
       4188.7853     0.300000       4.3743606       16.810091     0.260222
       4195.4166     0.300000       4.4865911       16.816093     0.266803
       4202.0959     0.300000       4.6257079       16.822572     0.274970
       4208.8236     0.300000       4.8164647       16.829931     0.286184
       4215.6001     0.300000       5.0623585       16.838229     0.300647
       4222.4257     0.300000       5.3398854       16.847087     0.316962
       4229.3007     0.300000       5.6512108       16.856533     0.335253
       4236.2256     0.300000       5.9683628       16.866127     0.353867
       4243.2007     0.300000       6.2784464       16.875657     0.372042
       4250.2263     0.300000       6.5768357       16.885055     0.389506
       4257.3028     0.300000       6.8395268       16.893936     0.404851
       4264.4306     0.300000       7.0872574       16.902633     0.419299
       4271.6101     0.300000       7.3376477       16.911427     0.433887
       4278.8415     0.300000       7.6293922       16.920934     0.450885
       4286.1254     0.300000       8.0034725       16.931811     0.472689
       4293.4621     0.300000       8.4535575       16.943959     0.498913
       4300.8520     0.300000       8.9815655       16.957400     0.529655
       4308.2954     0.300000       9.5766298       16.971959     0.564262
       4315.7927     0.300000       10.197364       16.986978     0.600305
       4323.3444     0.300000       10.815371       17.002006     0.636123
       4330.9508     0.300000       11.415573       17.016803     0.670841
       4338.6123     0.300000       11.992099       17.031275     0.704122
       4346.3294     0.300000       12.548424       17.045487     0.736173
       4354.1023     0.300000       13.085750       17.059453     0.767067
       4361.9316     0.300000       13.594101       17.073015     0.796233
       4369.8177     0.300000       14.054856       17.085887     0.822600
       4377.7609     0.300000       14.450605       17.097790     0.845174
       4385.7616     0.300000       14.827963       17.109465     0.866653
       4393.8203     0.300000       15.203233       17.121173     0.887978
       4401.9375     0.300000       15.583796       17.133022     0.909577
       4410.1134     0.300000       15.963047       17.144924     0.931065
       4418.3486     0.300000       16.274383       17.155820     0.948622
       4426.6435     0.300000       16.476022       17.165056     0.959858
       4434.9985     0.300000       16.552927       17.172404     0.963926
       4443.4141     0.300000       16.506397       17.177884     0.960910
       4451.8906     0.300000       16.363431       17.181924     0.952363
       4460.4286     0.300000       16.181559       17.185432     0.941586
       4469.0284     0.300000       16.019878       17.189332     0.931966
       4477.6905     0.300000       15.951126       17.194770     0.927673
       4486.4155     0.300000       16.013688       17.202348     0.930901
       4495.2036     0.300000       16.243916       17.212636     0.943720
       4504.0555     0.300000       16.678652       17.226205     0.968214
       4512.9715     0.300000       17.313268       17.242974      1.00408
       4521.9521     0.300000       18.086410       17.261979      1.04776
       4530.9978     0.300000       18.930719       17.282158      1.09539
       4540.1090     0.300000       19.749386       17.301998      1.14145
       4549.2863     0.300000       20.491775       17.320716      1.18308
       4558.5301     0.300000       21.161696       17.338369      1.22051
       4567.8408     0.300000       21.795221       17.355527      1.25581
       4577.2191     0.300000       22.412812       17.372508      1.29013
       4586.6653     0.300000       23.035964       17.389651      1.32469
       4596.1799     0.300000       23.701828       17.407531      1.36158
       4605.7636     0.300000       24.501241       17.427552      1.40589
       4615.4166     0.300000       25.499876       17.450724      1.46125
       4625.1396     0.300000       26.677691       17.476733      1.52647
       4634.9331     0.300000       27.929269       17.503928      1.59560
       4644.7976     0.300000       29.134209       17.530465      1.66192
       4654.7335     0.300000       30.204359       17.554979      1.72056
       4664.7414     0.300000       31.094195       17.576794      1.76905
       4674.8219     0.300000       31.831727       17.596340      1.80900
       4684.9754     0.300000       32.535566       17.615504      1.84698
       4695.2025     0.300000       33.253398       17.634908      1.88566
       4705.5038     0.300000       33.894397       17.653216      1.92001
       4715.8796     0.300000       34.353780       17.668835      1.94431
       4726.3307     0.300000       34.609807       17.681431      1.95741
       4736.8575     0.300000       34.714075       17.691969      1.96214
       4747.4606     0.300000       34.722880       17.700996      1.96163
       4758.1405     0.300000       34.608834       17.708257      1.95439
       4768.8978     0.300000       34.264007       17.712098      1.93450
       4779.7331     0.300000       33.483481       17.709409      1.89072
       4790.6469     0.300000       32.227992       17.699586      1.82083
       4801.6398     0.300000       30.781441       17.686956      1.74035
       4812.7124     0.300000       29.671768       17.679575      1.67831
       4823.8651     0.300000       29.080355       17.680215      1.64480
       4835.0988     0.300000       28.935845       17.687803      1.63592
       4846.4138     0.300000       29.028009       17.699107      1.64008
       4857.8108     0.300000       29.216326       17.711990      1.64952
       4869.2905     0.300000       29.430363       17.725371      1.66035
       4880.8533     0.300000       29.690527       17.739564      1.67369
       4892.4999     0.300000       30.051836       17.755409      1.69255
       4904.2309     0.300000       30.570924       17.773758      1.72000
       4916.0469     0.300000       31.270664       17.794951      1.75728
       4927.9486     0.300000       32.159409       17.819110      1.80477
       4939.9365     0.300000       33.274832       17.846791      1.86447
       4952.0112     0.300000       34.727455       17.879648      1.94229
       4964.1735     0.300000       36.547459       17.918112      2.03969
       4976.4240     0.300000       38.678551       17.961299      2.15344
       4988.7632     0.300000       40.959797       18.006765      2.27469
       5001.1918     0.300000       43.224690       18.052002      2.39445
       5013.7105     0.300000       45.487474       18.097232      2.51350
       5026.3199     0.300000       47.853328       18.144015      2.63742
       5039.0207     0.300000       50.254348       18.191333      2.76254
       5051.8135     0.300000       52.422495       18.235215      2.87479
       5064.6990     0.300000       54.338615       18.275407      2.97332
       5077.6780     0.300000       56.222401       18.315173      3.06972
       5090.7509     0.300000       58.318025       18.358107      3.17669
       5103.9186     0.300000       60.701510       18.405306      3.29804
       5117.1818     0.300000       63.230068       18.454649      3.42624
       5130.5410     0.300000       65.781027       18.504329      3.55490
       5143.9971     0.300000       68.293052       18.553457      3.68088
       5157.5507     0.300000       70.911569       18.604137      3.81160
       5171.2025     0.300000       73.861022       18.659620      3.95833
       5184.9532     0.300000       77.306114       18.722236      4.12911
       5198.8036     0.300000       81.176781       18.790908      4.32000
       5212.7544     0.300000       85.457393       18.865343      4.52986
       5226.8063     0.300000       90.102612       18.944837      4.75605
       5240.9600     0.300000       94.983655       19.027496      4.99192
       5255.2162     0.300000       99.847816       19.109705      5.22498
       5269.5758     0.300000       104.49793       19.188708      5.44580
       5284.0394     0.300000       108.75198       19.261989      5.64594
       5298.6079     0.300000       112.60641       19.329568      5.82560
       5313.2819     0.300000       115.89702       19.389215      5.97740
       5328.0623     0.300000       118.71756       19.442313      6.10614
       5342.9498     0.300000       121.19103       19.490611      6.21792
       5357.9452     0.300000       123.37664       19.534975      6.31568
       5373.0492     0.300000       125.26869       19.575349      6.39931
       5388.2627     0.300000       126.83516       19.611319      6.46745
       5403.5865     0.300000       128.08732       19.643070      6.52074
       5419.0213     0.300000       129.45049       19.676461      6.57895
       5434.5679     0.300000       131.11225       19.714051      6.65070
       5450.2272     0.300000       132.21276       19.744059      6.69633
       5466.0000     0.300000       131.14225       19.744529      6.64195
       5481.8871     0.300000       127.23936       19.706405      6.45675
       5497.8894     0.300000       120.27864       19.626349      6.12843
       5514.0076     0.300000       111.46917       19.520592      5.71034
       5530.2426     0.300000       102.17679       19.407726      5.26475
       5546.5953     0.300000       93.626368       19.304759      4.84991
       5563.0664     0.300000       86.738278       19.224786      4.51179
       5579.6570     0.300000       82.573037       19.183037      4.30448
       5596.3677     0.300000       81.260516       19.181579      4.23638
       5613.1996     0.300000       81.492908       19.202053      4.24397
       5630.1534     0.300000       82.929852       19.239614      4.31037
       5647.2302     0.300000       85.811419       19.297519      4.44676
       5664.4306     0.300000       90.017380       19.373917      4.64632
       5681.7557     0.300000       95.559552       19.468752      4.90836
       5699.2064     0.300000       103.16282       19.591746      5.26563
       5716.7835     0.300000       114.31914       19.762790      5.78456
       5734.4880     0.300000       129.63665       19.988846      6.48545
       5752.3208     0.300000       149.12726       20.268251      7.35768
       5770.2829     0.300000       172.12525       20.590104      8.35961
       5788.3751     0.300000       196.50671       20.925056      9.39098
       5806.5984     0.300000       219.26716       21.234325      10.3261
       5824.9538     0.300000       238.28161       21.492344      11.0868
       5843.4422     0.300000       252.83787       21.692071      11.6558
       5862.0646     0.300000       262.90451       21.834718      12.0407
       5880.8219     0.300000       268.11443       21.916882      12.2332
       5899.7152     0.300000       268.37692       21.938127      12.2334
       5918.7454     0.300000       265.68662       21.929724      12.1154
       5937.9949     0.300000       259.84759       21.883015      11.8744
       5957.4675     0.300000       252.96881       21.823781      11.5914
       5977.1658     0.300000       249.28497       21.804423      11.4328
       5997.0924     0.300000       252.69260       21.873213      11.5526
       6017.2499     0.300000       262.74435       22.013880      11.9354
       6037.6411     0.300000       278.43972       22.220800      12.5306
       6058.2685     0.300000       296.40368       22.453227      13.2009
       6079.1351     0.300000       313.24684       22.670043      13.8177
       6100.2435     0.300000       325.75612       22.833726      14.2664
       6121.5965     0.300000       330.87724       22.909430      14.4428
       6143.1970     0.300000       328.61150       22.898051      14.3511
       6165.0478     0.300000       321.86162       22.833805      14.0958
       6187.1519     0.300000       313.80974       22.754048      13.7914
       6209.5121     0.300000       306.26793       22.680197      13.5038
       6232.1315     0.300000       299.85512       22.619711      13.2564
       6255.0131     0.300000       293.29952       22.557466      13.0023
       6278.1598     0.300000       284.47090       22.467867      12.6612
       6301.5748     0.300000       272.66961       22.342120      12.2043
       6325.2612     0.300000       259.34122       22.197212      11.6835
       6349.2221     0.300000       245.94826       22.050481      11.1539
       6373.4607     0.300000       232.18033       21.897826      10.6029
       6397.9802     0.300000       218.05742       21.739791      10.0303
       6422.7839     0.300000       206.79550       21.616493      9.56656
       6447.8750     0.300000       203.04558       21.586778      9.40602
       6473.2570     0.300000       209.60022       21.685847      9.66530
       6498.9331     0.300000       223.76552       21.878734      10.2275
       6524.9068     0.300000       240.11536       22.096767      10.8665
       6551.1815     0.300000       254.77115       22.292253      11.4287
       6577.7608     0.300000       264.87871       22.431456      11.8084
       6604.6480     0.300000       269.29497       22.501699      11.9678
       6631.8469     0.300000       272.39531       22.556083      12.0764
       6659.3611     0.300000       282.28899       22.691439      12.4403
       6687.1941     0.300000       301.72528       22.938497      13.1537
       6715.3496     0.300000       323.95293       23.214104      13.9550
       6743.8315     0.300000       341.11495       23.428201      14.5600
       6772.6435     0.300000       349.38942       23.538658      14.8432
       6801.7894     0.300000       350.08238       23.561900      14.8580
       6831.2731     0.300000       347.46852       23.547271      14.7562
       6861.0985     0.300000       345.34852       23.538390      14.6717
       6891.2696     0.300000       342.84824       23.525156      14.5737
       6921.7903     0.300000       334.26145       23.441933      14.2591
       6952.6648     0.300000       317.73336       23.266447      13.6563
       6983.8971     0.300000       300.10608       23.076814      13.0047
       7015.4914     0.300000       288.95503       22.961970      12.5841
       7047.4518     0.300000       282.77768       22.900371      12.3482
       7079.7827     0.300000       276.05114       22.830068      12.0916
       7112.4882     0.300000       267.75982       22.740825      11.7744
       7145.5728     0.300000       261.39642       22.674064      11.5284
       7179.0409     0.300000       254.87591       22.605065      11.2752
       7212.8968     0.300000       241.72766       22.456119      10.7644
       7247.1451     0.300000       223.83822       22.248460      10.0608
       7281.7903     0.300000       210.85796       22.098886      9.54156
       7316.8370     0.300000       211.91776       22.120181      9.58029
       7352.2900     0.300000       222.24072       22.253991      9.98656
       7388.1538     0.300000       228.49209       22.340186      10.2279
       7424.4333     0.300000       230.69908       22.378766      10.3088
       7461.1332     0.300000       234.08476       22.431395      10.4356
       7498.2585     0.300000       243.24717       22.553102      10.7855
       7535.8140     0.300000       259.27311       22.755685      11.3938
       7573.8048     0.300000       281.61852       23.030620      12.2280
       7612.2359     0.300000       307.06825       23.338165      13.1573
       7651.1124     0.300000       327.08629       23.579480      13.8716
       7690.4395     0.300000       335.52360       23.686569      14.1651
       7730.2224     0.300000       337.73511       23.724299      14.2358
       7770.4663     0.300000       338.69324       23.749190      14.2613
       7811.1767     0.300000       326.64350       23.626343      13.8254
       7852.3682     0.300000       294.91581       23.277080      12.6698
       7894.0717     0.300000       264.09957       22.933235      11.5160
       7936.2935     0.300000       254.30736       22.834201      11.1371
       7979.0400     0.300000       261.54537       22.936159      11.4032
       8022.3178     0.300000       273.81766       23.096591      11.8553
       8066.1335     0.300000       277.31557       23.153147      11.9774
       8110.4938     0.300000       265.16964       23.025794      11.5162
       8155.4054     0.300000       249.14568       22.851901      10.9026
       8200.8751     0.300000       251.71012       22.896910      10.9932
       8246.9100     0.300000       281.23127       23.256925      12.0924
       8293.5171     0.300000       318.02718       23.694445      13.4220
       8340.7033     0.300000       338.99298       23.946096      14.1565
       8388.4761     0.300000       345.74139       24.035842      14.3844
       8436.8425     0.300000       348.68982       24.085012      14.4775
       8485.8101     0.300000       346.77008       24.079641      14.4010
       8535.3863     0.300000       336.74696       23.983186      14.0410
       8585.5786     0.300000       321.46003       23.826740      13.4916
       8636.3948     0.300000       312.56011       23.742009      13.1649
       8687.8425     0.300000       320.22953       23.845364      13.4294
       8739.9296     0.300000       337.75585       24.059067      14.0386
