# wave aperture counts noise snr
       4000.0000     0.300000      0.64810295       24.646728    0.0262957
       4005.2632     0.300000      0.69046847       24.649423    0.0280115
       4010.5645     0.300000      0.73529958       24.652188    0.0298270
       4015.9042     0.300000      0.79164257       24.655213    0.0321085
       4021.2826     0.300000      0.84680854       24.658243    0.0343418
       4026.7000     0.300000      0.89414777       24.661135    0.0362574
       4032.1566     0.300000      0.93963843       24.664017    0.0380975
       4037.6528     0.300000      0.98137959       24.666852    0.0397854
       4043.1888     0.300000       1.0224203       24.669690    0.0414444
       4048.7650     0.300000       1.0631862       24.672550    0.0430919
       4054.3815     0.300000       1.1081635       24.675526    0.0449094
       4060.0388     0.300000       1.1553036       24.678563    0.0468141
       4065.7370     0.300000       1.2081688       24.681752    0.0489499
       4071.4766     0.300000       1.2636812       24.685020    0.0511922
       4077.2577     0.300000       1.3241854       24.688419    0.0536359
       4083.0808     0.300000       1.3886373       24.691928    0.0562385
       4088.9460     0.300000       1.4569489       24.695535    0.0589964
       4094.8538     0.300000       1.5221237       24.699114    0.0616267
       4100.8043     0.300000       1.5863624       24.702700    0.0642182
       4106.7980     0.300000       1.6417633       24.706137    0.0664516
       4112.8351     0.300000       1.6914733       24.709485    0.0684544
       4118.9160     0.300000       1.7341884       24.712724    0.0701739
       4125.0409     0.300000       1.7721658       24.715894    0.0717015
       4131.2102     0.300000       1.8097624       24.719087    0.0732132
       4137.4242     0.300000       1.8484610       24.722330    0.0747689
       4143.6833     0.300000       1.8937337       24.725741    0.0765896
       4149.9877     0.300000       1.9441390       24.729293    0.0786169
       4156.3378     0.300000       2.0043202       24.733072    0.0810381
       4162.7339     0.300000       2.0669862       24.736935    0.0835587
       4169.1764     0.300000       2.1325495       24.740886    0.0861954
       4175.6656     0.300000       2.1893741       24.744698    0.0884785
       4182.2017     0.300000       2.2438815       24.748490    0.0906674
       4188.7853     0.300000       2.2953963       24.752258    0.0927348
       4195.4166     0.300000       2.3542872       24.756211    0.0950989
       4202.0959     0.300000       2.4272828       24.760483    0.0980305
       4208.8236     0.300000       2.5273646       24.765343     0.102052
       4215.6001     0.300000       2.6563757       24.770829     0.107238
       4222.4257     0.300000       2.8019842       24.776687     0.113090
       4229.3007     0.300000       2.9653267       24.782939     0.119652
       4236.2256     0.300000       3.1317231       24.789288     0.126334
       4243.2007     0.300000       3.2944089       24.795597     0.132863
       4250.2263     0.300000       3.4509550       24.801816     0.139141
       4257.3028     0.300000       3.5887662       24.807702     0.144663
       4264.4306     0.300000       3.7187284       24.813456     0.149867
       4271.6101     0.300000       3.8500812       24.819285     0.155125
       4278.8415     0.300000       4.0031337       24.825586     0.161250
       4286.1254     0.300000       4.1993856       24.832800     0.169106
       4293.4621     0.300000       4.4355108       24.840867     0.178557
       4300.8520     0.300000       4.7125181       24.849796     0.189640
       4308.2954     0.300000       5.0247247       24.859487     0.202125
       4315.7927     0.300000       5.3504031       24.869479     0.215139
       4323.3444     0.300000       5.6746459       24.879487     0.228085
       4330.9508     0.300000       5.9895450       24.889345     0.240647
       4338.6123     0.300000       6.2920219       24.898988     0.252702
       4346.3294     0.300000       6.5838994       24.908462     0.264324
       4354.1023     0.300000       6.8658023       24.917769     0.275538
       4361.9316     0.300000       7.1325087       24.926817     0.286138
       4369.8177     0.300000       7.3742343       24.935401     0.295734
       4377.7609     0.300000       7.5818514       24.943340     0.303963
       4385.7616     0.300000       7.7798201       24.951124     0.311802
       4393.8203     0.300000       7.9766942       24.958936     0.319593
       4401.9375     0.300000       8.1763399       24.966847     0.327488
       4410.1134     0.300000       8.3753548       24.974793     0.335352
       4418.3486     0.300000       8.5387348       24.982069     0.341795
       4426.6435     0.300000       8.6445713       24.988227     0.345946
       4434.9985     0.300000       8.6849617       24.993120     0.347494
       4443.4141     0.300000       8.6605876       24.996753     0.346468
       4451.8906     0.300000       8.5856123       24.999429     0.343432
       4460.4286     0.300000       8.4902290       25.001736     0.339586
       4469.0284     0.300000       8.4054365       25.004307     0.336160
       4477.6905     0.300000       8.3693987       25.007920     0.334670
       4486.4155     0.300000       8.4022648       25.012963     0.335916
       4495.2036     0.300000       8.5231039       25.019840     0.340654
       4504.0555     0.300000       8.7512439       25.028925     0.349645
       4512.9715     0.300000       9.0842527       25.040170     0.362787
       4521.9521     0.300000       9.4899425       25.052927     0.378796
       4530.9978     0.300000       9.9329808       25.066488     0.396265
       4540.1090     0.300000       10.362566       25.079823     0.413183
       4549.2863     0.300000       10.752129       25.092409     0.428501
       4558.5301     0.300000       11.103669       25.104287     0.442302
       4567.8408     0.300000       11.436118       25.115836     0.455335
       4577.2191     0.300000       11.760204       25.127269     0.468026
       4586.6653     0.300000       12.087206       25.138810     0.480819
       4596.1799     0.300000       12.436639       25.150864     0.494482
       4605.7636     0.300000       12.856094       25.164374     0.510885
       4615.4166     0.300000       13.379967       25.180021     0.531372
       4625.1396     0.300000       13.997832       25.197605     0.555522
       4634.9331     0.300000       14.654403       25.216014     0.581155
       4644.7976     0.300000       15.286476       25.233988     0.605789
       4654.7335     0.300000       15.847814       25.250603     0.627621
       4664.7414     0.300000       16.314528       25.265377     0.645727
       4674.8219     0.300000       16.701342       25.278629     0.660690
       4684.9754     0.300000       17.070467       25.291579     0.674947
       4695.2025     0.300000       17.446917       25.304741     0.689472
       4705.5038     0.300000       17.783020       25.317159     0.702410
       4715.8796     0.300000       18.023598       25.327748     0.711615
       4726.3307     0.300000       18.157476       25.336273     0.716659
       4736.8575     0.300000       18.211759       25.343290     0.718603
       4747.4606     0.300000       18.215922       25.349382     0.718594
       4758.1405     0.300000       18.155647       25.354258     0.716079
       4768.8978     0.300000       17.974294       25.356809     0.708855
       4779.7331     0.300000       17.564398       25.354889     0.692742
       4790.6469     0.300000       16.905378       25.348102     0.666929
       4801.6398     0.300000       16.146175       25.339385     0.637197
       4812.7124     0.300000       15.563657       25.334267     0.614332
       4823.8651     0.300000       15.252983       25.334627     0.602061
       4835.0988     0.300000       15.176729       25.339720     0.598930
       4846.4138     0.300000       15.224598       25.347362     0.600638
       4857.8108     0.300000       15.322899       25.356073     0.604309
       4869.2905     0.300000       15.434670       25.365137     0.608499
       4880.8533     0.300000       15.570628       25.374759     0.613627
       4892.4999     0.300000       15.759614       25.385511     0.620811
       4904.2309     0.300000       16.031319       25.397978     0.631205
       4916.0469     0.300000       16.397883       25.412405     0.645271
       4927.9486     0.300000       16.863561       25.428870     0.663166
       4939.9365     0.300000       17.448070       25.447765     0.685643
       4952.0112     0.300000       18.209370       25.470226     0.714928
       4964.1735     0.300000       19.163252       25.496562     0.751601
       4976.4240     0.300000       20.280206       25.526165     0.794487
       4988.7632     0.300000       21.475837       25.557380     0.840299
       5001.1918     0.300000       22.662844       25.588478     0.885666
       5013.7105     0.300000       23.848982       25.619611     0.930888
       5026.3199     0.300000       25.089361       25.651859     0.978072
       5039.0207     0.300000       26.348153       25.684526      1.02584
       5051.8135     0.300000       27.484863       25.714853      1.06883
       5064.6990     0.300000       28.489443       25.742651      1.10670
       5077.6780     0.300000       29.477068       25.770181      1.14384
       5090.7509     0.300000       30.575729       25.799950      1.18511
       5103.9186     0.300000       31.825318       25.832723      1.23198
       5117.1818     0.300000       33.151639       25.867038      1.28162
       5130.5410     0.300000       34.489970       25.901649      1.33157
       5143.9971     0.300000       35.807953       25.935910      1.38063
       5157.5507     0.300000       37.181820       25.971321      1.43165
       5171.2025     0.300000       38.729316       26.010140      1.48901
       5184.9532     0.300000       40.536792       26.054029      1.55587
       5198.8036     0.300000       42.567516       26.102253      1.63080
       5212.7544     0.300000       44.813678       26.154644      1.71341
       5226.8063     0.300000       47.251884       26.210717      1.80277
       5240.9600     0.300000       49.813977       26.269151      1.89629
       5255.2162     0.300000       52.367514       26.327393      1.98909
       5269.5758     0.300000       54.809021       26.383485      2.07740
       5284.0394     0.300000       57.043055       26.435611      2.15781
       5298.6079     0.300000       59.067760       26.483760      2.23034
       5313.2819     0.300000       60.797044       26.526330      2.29195
       5328.0623     0.300000       62.280431       26.564270      2.34452
       5342.9498     0.300000       63.581916       26.598837      2.39040
       5357.9452     0.300000       64.732545       26.630616      2.43076
       5373.0492     0.300000       65.729316       26.659569      2.46551
       5388.2627     0.300000       66.555450       26.685387      2.49408
       5403.5865     0.300000       67.216694       26.708182      2.51671
       5419.0213     0.300000       67.936220       26.732176      2.54137
       5434.5679     0.300000       68.812497       26.759215      2.57154
       5450.2272     0.300000       69.394292       26.780813      2.59119
       5466.0000     0.300000       68.836676       26.781099      2.57035
       5481.8871     0.300000       66.792206       26.753539      2.49657
       5497.8894     0.300000       63.142218       26.695807      2.36525
       5514.0076     0.300000       58.520946       26.619710      2.19841
       5530.2426     0.300000       53.645028       26.538694      2.02139
       5546.5953     0.300000       49.158210       26.464963      1.85748
       5563.0664     0.300000       45.543840       26.407797      1.72464
       5579.6570     0.300000       43.358926       26.377940      1.64376
       5596.3677     0.300000       42.671770       26.376795      1.61778
       5613.1996     0.300000       42.795761       26.391257      1.62159
       5630.1534     0.300000       43.551479       26.417901      1.64856
       5647.2302     0.300000       45.065928       26.459090      1.70323
       5664.4306     0.300000       47.276030       26.513571      1.78309
       5681.7557     0.300000       50.187990       26.581376      1.88809
       5699.2064     0.300000       54.182702       26.669600      2.03163
       5716.7835     0.300000       60.043231       26.792763      2.24102
       5734.4880     0.300000       68.088276       26.956343      2.52587
       5752.3208     0.300000       78.325226       27.159744      2.88387
       5770.2829     0.300000       90.404289       27.395646      3.29995
       5788.3751     0.300000       103.21005       27.642917      3.73369
       5806.5984     0.300000       115.16427       27.872769      4.13178
       5824.9538     0.300000       125.14869       28.065560      4.45916
       5843.4422     0.300000       132.79039       28.215412      4.70631
       5862.0646     0.300000       138.07366       28.322710      4.87502
       5880.8219     0.300000       140.80610       28.384544      4.96066
       5899.7152     0.300000       140.94014       28.400357      4.96262
       5918.7454     0.300000       139.52239       28.393670      4.91386
       5937.9949     0.300000       136.44927       28.357990      4.81167
       5957.4675     0.300000       132.83030       28.312880      4.69151
       5977.1658     0.300000       130.88930       28.297898      4.62541
       5997.0924     0.300000       132.67162       28.349444      4.67987
       6017.2499     0.300000       137.94118       28.455525      4.84761
       6037.6411     0.300000       146.17070       28.612191      5.10869
       6058.2685     0.300000       155.58968       28.788897      5.40450
       6079.1351     0.300000       164.41888       28.954360      5.67855
       6100.2435     0.300000       170.97198       29.079580      5.87945
       6121.5965     0.300000       173.64536       29.137390      5.95954
       6143.1970     0.300000       172.44017       29.128196      5.92004
       6165.0478     0.300000       168.88226       29.078383      5.80783
       6187.1519     0.300000       164.64166       29.016722      5.67403
       6209.5121     0.300000       160.66922       28.959686      5.54803
       6232.1315     0.300000       157.28785       28.912915      5.44005
       6255.0131     0.300000       153.83179       28.864860      5.32938
       6278.1598     0.300000       149.18430       28.795985      5.18073
       6301.5748     0.300000       142.97896       28.699718      4.98189
       6325.2612     0.300000       135.97350       28.589130      4.75613
       6349.2221     0.300000       128.93500       28.477464      4.52762
       6373.4607     0.300000       121.70149       28.361670      4.29106
       6397.9802     0.300000       114.28379       28.242201      4.04656
       6422.7839     0.300000       108.36691       28.149164      3.84974
       6447.8750     0.300000       106.38712       28.126461      3.78246
       6473.2570     0.300000       109.80604       28.200391      3.89378
       6498.9331     0.300000       117.21043       28.345097      4.13512
       6524.9068     0.300000       125.75665       28.509309      4.41107
       6551.1815     0.300000       133.41346       28.657040      4.65552
       6577.7608     0.300000       138.68648       28.762395      4.82180
       6604.6480     0.300000       140.97825       28.815392      4.89246
       6631.8469     0.300000       142.58145       28.856371      4.94107
       6659.3611     0.300000       147.74011       28.959246      5.10166
       6687.1941     0.300000       157.89081       29.148011      5.41686
       6715.3496     0.300000       169.49881       29.359545      5.77321
       6743.8315     0.300000       178.45730       29.524460      6.04439
       6772.6435     0.300000       182.76446       29.609515      6.17249
       6801.7894     0.300000       183.10509       29.627044      6.18034
       6831.2731     0.300000       181.71872       29.615252      6.13598
       6861.0985     0.300000       180.59392       29.607947      6.09951
       6891.2696     0.300000       179.27011       29.597298      6.05698
       6921.7903     0.300000       174.76492       29.532501      5.91771
       6952.6648     0.300000       166.11457       29.396691      5.65079
       6983.8971     0.300000       156.89037       29.250423      5.36370
       7015.4914     0.300000       151.05248       29.161976      5.17978
       7047.4518     0.300000       147.82071       29.114642      5.07720
       7079.7827     0.300000       144.30251       29.060714      4.96555
       7112.4882     0.300000       139.96652       28.992385      4.82770
       7145.5728     0.300000       136.64281       28.941397      4.72136
       7179.0409     0.300000       133.23791       28.888796      4.61210
       7212.8968     0.300000       126.36816       28.775416      4.39153
       7247.1451     0.300000       117.02239       28.617944      4.08913
       7281.7903     0.300000       110.24343       28.504836      3.86753
       7316.8370     0.300000       110.80477       28.521026      3.88502
       7352.2900     0.300000       116.21263       28.622452      4.06019
       7388.1538     0.300000       119.49257       28.687988      4.16525
       7424.4333     0.300000       120.65824       28.717440      4.20157
       7461.1332     0.300000       122.44235       28.757631      4.25773
       7498.2585     0.300000       127.24909       28.850503      4.41064
       7535.8140     0.300000       135.64806       29.005434      4.67664
       7573.8048     0.300000       147.35594       29.216551      5.04358
       7612.2359     0.300000       160.69153       29.453915      5.45569
       7651.1124     0.300000       171.18653       29.641107      5.77531
       7690.4395     0.300000       175.62215       29.724595      5.90831
       7730.2224     0.300000       176.79950       29.754233      5.94199
       7770.4663     0.300000       177.31880       29.773849      5.95552
       7811.1767     0.300000       171.02744       29.678537      5.76266
       7852.3682     0.300000       154.42851       29.408081      5.25123
       7894.0717     0.300000       138.30324       29.143307      4.74563
       7936.2935     0.300000       133.18529       29.067382      4.58195
       7979.0400     0.300000       136.98401       29.145693      4.69997
       8022.3178     0.300000       143.42005       29.269189      4.90003
       8066.1335     0.300000       145.25779       29.312803      4.95544
       8110.4938     0.300000       138.90093       29.214697      4.75449
       8155.4054     0.300000       130.51051       29.081027      4.48782
       8200.8751     0.300000       131.85618       29.115535      4.52872
       8246.9100     0.300000       147.32235       29.392823      5.01219
       8293.5171     0.300000       166.59852       29.732061      5.60333
       8340.7033     0.300000       177.58177       29.928236      5.93359
       8388.4761     0.300000       181.11645       29.998338      6.03755
       8436.8425     0.300000       182.66023       30.036728      6.08123
       8485.8101     0.300000       181.65410       30.032422      6.04860
       8535.3863     0.300000       176.40315       29.956848      5.88858
       8585.5786     0.300000       168.39580       29.834604      5.64431
       8636.3948     0.300000       163.73463       29.768490      5.50027
       8687.8425     0.300000       167.75517       29.849014      5.62012
       8739.9296     0.300000       176.94028       30.015973      5.89487
